# Constants and Parameters

# Final flow velocity (u_f): 2000 (m/s) - The final velocity of the flow
# Initial particle velocity (u_0): 0 (m/s) - The initial velocity of the particle
# Particle radius (r_is): 1e-06 (m) - The radius of the particle
# Nozzle radius (r_n): 0.05 (m) - The radius of the nozzle
# Particle density (q): 7874 (kg/m^3) - The density of the particle
# Gas density (q_g): 1.2754 (kg/m^3) - The density of the gas
# Gas constant (R): 8.31446 (J/(kg*K)) - The specific gas constant
# Gamma: 1.4# Molar mass of air (M): 0.029 (kg/mol) - The molar mass of air
# Gas temperature (T): 300 (K) - The temperature of the gas
# Reference temperature (T_0): 291.15 (K) - The reference temperature for gas
# Reference viscosity (eta_0): 1.827e-05 (Pa*s) - The reference viscosity of the gas
# Specific heat capacity of the gas (Cp): 460 (J/(kg*K)) - The specific heat capacity of the gas
# Speed of sound (Sound speed): 347.011 (m/s) - The speed of sound in the gas
# Dynamic viscosity (Viscosity): 1.91093e-05 (Pa*s) - The dynamic viscosity of the gas






# iter real_time (s) velocity (m/s) distance (m)
0 0 0 0
1 5.05966e-05 3.80222 0.00019238
2 9.10739e-05 6.83927 0.000469214
3 0.000123456 9.26588 0.00076926
4 0.000149361 11.2052 0.00105954
5 0.000175267 13.1429 0.00140001
6 0.000201172 15.0787 0.00179063
7 0.000227078 17.0129 0.00223136
8 0.000252983 18.9453 0.00272214
9 0.000278888 20.876 0.00326295
10 0.000304794 22.805 0.00385372
11 0.000330699 24.7322 0.00449442
12 0.000356605 26.6578 0.005185
13 0.00038251 28.5816 0.00592542
14 0.000408416 30.5036 0.00671563
15 0.000434321 32.424 0.00755559
16 0.000460227 34.3427 0.00844525
17 0.000486132 36.2596 0.00938457
18 0.000512038 38.1748 0.0103735
19 0.000537943 40.0883 0.011412
20 0.000563848 42.0001 0.0125
21 0.000589754 43.9102 0.0136376
22 0.000615659 45.8186 0.0148245
23 0.000641565 47.7253 0.0160609
24 0.00066747 49.6302 0.0173466
25 0.000693376 51.5335 0.0186816
26 0.000719281 53.4351 0.0200658
27 0.000745187 55.3349 0.0214993
28 0.000771092 57.2331 0.0229819
29 0.000796998 59.1296 0.0245137
30 0.000822903 61.0244 0.0260946
31 0.000848808 62.9175 0.0277245
32 0.000874714 64.8089 0.0294034
33 0.000900619 66.6986 0.0311312
34 0.000926525 68.5866 0.032908
35 0.00095243 70.4729 0.0347336
36 0.000978336 72.3576 0.0366081
37 0.00100424 74.2406 0.0385313
38 0.00103015 76.1218 0.0405033
39 0.00105605 78.0015 0.042524
40 0.00108196 79.8794 0.0445933
41 0.00110786 81.7556 0.0467112
42 0.00113377 83.6302 0.0488777
43 0.00115967 85.5031 0.0510927
44 0.00118558 87.3743 0.0533562
45 0.00121148 89.2439 0.0556681
46 0.00123739 91.1118 0.0580283
47 0.0012633 92.978 0.060437
48 0.0012892 94.8426 0.0628939
49 0.00131511 96.7055 0.0653991
50 0.00134101 98.5667 0.0679525
51 0.00136692 100.426 0.0705541
52 0.00139282 102.284 0.0732038
53 0.00141873 104.14 0.0759017
54 0.00144463 105.995 0.0786475
55 0.00147054 107.848 0.0814414
56 0.00149644 109.699 0.0842832
57 0.00152235 111.549 0.0871729
58 0.00154826 113.397 0.0901105
59 0.00157416 115.243 0.0930959
60 0.00160007 117.088 0.0961291
61 0.00162597 118.931 0.0992101
62 0.00165188 120.772 0.102339
63 0.00167778 122.612 0.105515
64 0.00170369 124.45 0.108739
65 0.00172959 126.287 0.112011
66 0.0017555 128.122 0.11533
67 0.0017814 129.955 0.118696
68 0.00180731 131.786 0.12211
69 0.00183322 133.616 0.125571
70 0.00185912 135.445 0.12908
71 0.00188503 137.271 0.132636
72 0.00191093 139.096 0.13624
73 0.00193684 140.92 0.13989
74 0.00196274 142.741 0.143588
75 0.00198865 144.562 0.147333
76 0.00201455 146.38 0.151125
77 0.00204046 148.197 0.154964
78 0.00206636 150.012 0.15885
79 0.00209227 151.826 0.162783
80 0.00211818 153.638 0.166763
81 0.00214408 155.449 0.17079
82 0.00216999 157.257 0.174864
83 0.00219589 159.065 0.178985
84 0.0022218 160.87 0.183152
85 0.0022477 162.674 0.187366
86 0.00227361 164.477 0.191627
87 0.00229951 166.277 0.195935
88 0.00232542 168.077 0.200289
89 0.00235132 169.874 0.20469
90 0.00237723 171.67 0.209137
91 0.00240314 173.465 0.21363
92 0.00242904 175.257 0.218171
93 0.00245495 177.049 0.222757
94 0.00248085 178.838 0.22739
95 0.00250676 180.626 0.232069
96 0.00253266 182.413 0.236795
97 0.00255857 184.197 0.241566
98 0.00258447 185.981 0.246384
99 0.00261038 187.762 0.251248
100 0.00263628 189.542 0.256159
101 0.00266219 191.321 0.261115
102 0.0026881 193.098 0.266117
103 0.002714 194.873 0.271165
104 0.00273991 196.647 0.27626
105 0.00276581 198.419 0.2814
106 0.00279172 200.189 0.286586
107 0.00281762 201.958 0.291818
108 0.00284353 203.726 0.297095
109 0.00286943 205.492 0.302419
110 0.00289534 207.256 0.307788
111 0.00292125 209.019 0.313202
112 0.00294715 210.78 0.318663
113 0.00297306 212.539 0.324169
114 0.00299896 214.297 0.32972
115 0.00302487 216.054 0.335317
116 0.00305077 217.809 0.340959
117 0.00307668 219.562 0.346647
118 0.00310258 221.314 0.352381
119 0.00312849 223.064 0.358159
120 0.00315439 224.813 0.363983
121 0.0031803 226.56 0.369852
122 0.00320621 228.305 0.375767
123 0.00323211 230.049 0.381726
124 0.00325802 231.792 0.387731
125 0.00328392 233.533 0.39378
126 0.00330983 235.272 0.399875
127 0.00333573 237.01 0.406015
128 0.00336164 238.746 0.4122
129 0.00338754 240.481 0.41843
130 0.00341345 242.214 0.424704
131 0.00343935 243.945 0.431024
132 0.00346526 245.675 0.437388
133 0.00349117 247.404 0.443797
134 0.00351707 249.131 0.450251
135 0.00354298 250.856 0.45675
136 0.00356888 252.58 0.463293
137 0.00359479 254.303 0.469881
138 0.00362069 256.024 0.476513
139 0.0036466 257.743 0.48319
140 0.0036725 259.461 0.489912
141 0.00369841 261.177 0.496678
142 0.00372431 262.892 0.503488
143 0.00375022 264.605 0.510343
144 0.00377613 266.317 0.517242
145 0.00380203 268.027 0.524185
146 0.00382794 269.736 0.531173
147 0.00385384 271.443 0.538204
148 0.00387975 273.149 0.545281
149 0.00390565 274.853 0.552401
150 0.00393156 276.555 0.559565
151 0.00395746 278.256 0.566773
152 0.00398337 279.956 0.574026
153 0.00400927 281.654 0.581322
154 0.00403518 283.351 0.588662
155 0.00406109 285.046 0.596047
156 0.00408699 286.739 0.603475
157 0.0041129 288.431 0.610947
158 0.0041388 290.122 0.618462
159 0.00416471 291.811 0.626022
160 0.00419061 293.499 0.633625
161 0.00421652 295.185 0.641272
162 0.00424242 296.869 0.648963
163 0.00426833 298.552 0.656697
164 0.00429423 300.234 0.664474
165 0.00432014 301.914 0.672296
166 0.00434605 303.593 0.68016
167 0.00437195 305.27 0.688069
168 0.00439786 306.945 0.69602
169 0.00442376 308.619 0.704015
170 0.00444967 310.292 0.712053
171 0.00447557 311.963 0.720135
172 0.00450148 313.633 0.72826
173 0.00452738 315.301 0.736428
174 0.00455329 316.968 0.744639
175 0.00457919 318.633 0.752893
176 0.0046051 320.297 0.761191
177 0.00463101 321.959 0.769531
178 0.00465691 323.62 0.777915
179 0.00468282 325.279 0.786341
180 0.00470872 326.937 0.794811
181 0.00473463 328.594 0.803323
182 0.00476053 330.249 0.811878
183 0.00478644 331.902 0.820476
184 0.00481234 333.554 0.829117
185 0.00483825 335.205 0.837801
186 0.00486415 336.854 0.846527
187 0.00489006 338.501 0.855296
188 0.00491597 340.147 0.864108
189 0.00494187 341.792 0.872962
190 0.00496778 343.435 0.881859
191 0.00499368 345.077 0.890798
192 0.00501959 346.717 0.89978
193 0.00504549 348.356 0.908805
194 0.0050714 349.994 0.917871
195 0.0050973 351.63 0.92698
196 0.00512321 353.264 0.936132
197 0.00514911 354.897 0.945326
198 0.00517502 356.529 0.954562
199 0.00520093 358.159 0.96384
200 0.00522683 359.788 0.97316
201 0.00525274 361.415 0.982523
202 0.00527864 363.041 0.991928
203 0.00530455 364.666 1.00137
204 0.00533045 366.289 1.01086
205 0.00535636 367.91 1.02039
206 0.00538226 369.53 1.02997
207 0.00540817 371.149 1.03958
208 0.00543407 372.766 1.04924
209 0.00545998 374.382 1.05894
210 0.00548589 375.996 1.06868
211 0.00551179 377.609 1.07846
212 0.0055377 379.221 1.08828
213 0.0055636 380.831 1.09815
214 0.00558951 382.44 1.10806
215 0.00561541 384.047 1.11801
216 0.00564132 385.653 1.128
217 0.00566722 387.257 1.13803
218 0.00569313 388.86 1.1481
219 0.00571903 390.462 1.15822
220 0.00574494 392.062 1.16837
221 0.00577085 393.661 1.17857
222 0.00579675 395.258 1.18881
223 0.00582266 396.854 1.19909
224 0.00584856 398.448 1.20941
225 0.00587447 400.042 1.21978
226 0.00590037 401.633 1.23018
227 0.00592628 403.224 1.24063
228 0.00595218 404.812 1.25111
229 0.00597809 406.4 1.26164
230 0.00600399 407.986 1.27221
231 0.0060299 409.571 1.28282
232 0.00605581 411.154 1.29347
233 0.00608171 412.736 1.30416
234 0.00610762 414.316 1.3149
235 0.00613352 415.895 1.32567
236 0.00615943 417.473 1.33649
237 0.00618533 419.049 1.34734
238 0.00621124 420.624 1.35824
239 0.00623714 422.198 1.36918
240 0.00626305 423.77 1.38015
241 0.00628895 425.341 1.39117
242 0.00631486 426.91 1.40223
243 0.00634077 428.478 1.41333
244 0.00636667 430.045 1.42447
245 0.00639258 431.61 1.43565
246 0.00641848 433.174 1.44687
247 0.00644439 434.736 1.45814
248 0.00647029 436.297 1.46944
249 0.0064962 437.857 1.48078
250 0.0065221 439.415 1.49216
251 0.00654801 440.972 1.50359
252 0.00657391 442.527 1.51505
253 0.00659982 444.082 1.52656
254 0.00662573 445.634 1.5381
255 0.00665163 447.186 1.54969
256 0.00667754 448.736 1.56131
257 0.00670344 450.285 1.57297
258 0.00672935 451.832 1.58468
259 0.00675525 453.378 1.59642
260 0.00678116 454.923 1.60821
261 0.00680706 456.466 1.62003
262 0.00683297 458.008 1.6319
263 0.00685887 459.548 1.6438
264 0.00688478 461.087 1.65575
265 0.00691069 462.625 1.66773
266 0.00693659 464.162 1.67976
267 0.0069625 465.697 1.69182
268 0.0069884 467.23 1.70393
269 0.00701431 468.763 1.71607
270 0.00704021 470.294 1.72825
271 0.00706612 471.824 1.74048
272 0.00709202 473.352 1.75274
273 0.00711793 474.879 1.76504
274 0.00714383 476.405 1.77738
275 0.00716974 477.929 1.78976
276 0.00719565 479.452 1.80218
277 0.00722155 480.973 1.81464
278 0.00724746 482.494 1.82714
279 0.00727336 484.013 1.83968
280 0.00729927 485.53 1.85226
281 0.00732517 487.047 1.86487
282 0.00735108 488.561 1.87753
283 0.00737698 490.075 1.89023
284 0.00740289 491.587 1.90296
285 0.00742879 493.098 1.91574
286 0.0074547 494.608 1.92855
287 0.00748061 496.116 1.9414
288 0.00750651 497.623 1.95429
289 0.00753242 499.129 1.96722
290 0.00755832 500.633 1.98019
291 0.00758423 502.136 1.9932
292 0.00761013 503.638 2.00625
293 0.00763604 505.138 2.01933
294 0.00766194 506.637 2.03246
295 0.00768785 508.135 2.04562
296 0.00771375 509.631 2.05882
297 0.00773966 511.126 2.07206
298 0.00776557 512.62 2.08534
299 0.00779147 514.112 2.09866
300 0.00781738 515.603 2.11202
301 0.00784328 517.093 2.12541
302 0.00786919 518.582 2.13885
303 0.00789509 520.069 2.15232
304 0.007921 521.555 2.16583
305 0.0079469 523.039 2.17938
306 0.00797281 524.523 2.19297
307 0.00799871 526.005 2.2066
308 0.00802462 527.485 2.22026
309 0.00805053 528.965 2.23396
310 0.00807643 530.443 2.2477
311 0.00810234 531.919 2.26148
312 0.00812824 533.395 2.2753
313 0.00815415 534.869 2.28916
314 0.00818005 536.342 2.30305
315 0.00820596 537.814 2.31698
316 0.00823186 539.284 2.33096
317 0.00825777 540.753 2.34496
318 0.00828367 542.221 2.35901
319 0.00830958 543.687 2.37309
320 0.00833549 545.152 2.38722
321 0.00836139 546.616 2.40138
322 0.0083873 548.078 2.41558
323 0.0084132 549.54 2.42981
324 0.00843911 551 2.44409
325 0.00846501 552.458 2.4584
326 0.00849092 553.916 2.47275
327 0.00851682 555.372 2.48713
328 0.00854273 556.827 2.50156
329 0.00856863 558.28 2.51602
330 0.00859454 559.733 2.53052
331 0.00862045 561.184 2.54506
332 0.00864635 562.634 2.55963
333 0.00867226 564.082 2.57425
334 0.00869816 565.529 2.5889
335 0.00872407 566.975 2.60359
336 0.00874997 568.42 2.61831
337 0.00877588 569.863 2.63307
338 0.00880178 571.306 2.64787
339 0.00882769 572.746 2.66271
340 0.00885359 574.186 2.67758
341 0.0088795 575.624 2.6925
342 0.00890541 577.062 2.70745
343 0.00893131 578.497 2.72243
344 0.00895722 579.932 2.73746
345 0.00898312 581.365 2.75252
346 0.00900903 582.797 2.76761
347 0.00903493 584.228 2.78275
348 0.00906084 585.658 2.79792
349 0.00908674 587.086 2.81313
350 0.00911265 588.513 2.82837
351 0.00913855 589.939 2.84366
352 0.00916446 591.364 2.85898
353 0.00919037 592.787 2.87433
354 0.00921627 594.209 2.88973
355 0.00924218 595.63 2.90516
356 0.00926808 597.049 2.92062
357 0.00929399 598.468 2.93613
358 0.00931989 599.885 2.95167
359 0.0093458 601.301 2.96724
360 0.0093717 602.715 2.98286
361 0.00939761 604.129 2.99851
362 0.00942351 605.541 3.01419
363 0.00944942 606.952 3.02992
364 0.00947533 608.361 3.04568
365 0.00950123 609.77 3.06147
366 0.00952714 611.177 3.07731
367 0.00955304 612.583 3.09318
368 0.00957895 613.988 3.10908
369 0.00960485 615.391 3.12502
370 0.00963076 616.793 3.141
371 0.00965666 618.195 3.15702
372 0.00968257 619.594 3.17307
373 0.00970847 620.993 3.18915
374 0.00973438 622.39 3.20528
375 0.00976029 623.787 3.22144
376 0.00978619 625.182 3.23763
377 0.0098121 626.575 3.25386
378 0.009838 627.968 3.27013
379 0.00986391 629.359 3.28644
380 0.00988981 630.749 3.30278
381 0.00991572 632.138 3.31915
382 0.00994162 633.526 3.33556
383 0.00996753 634.912 3.35201
384 0.00999343 636.297 3.3685
385 0.0100193 637.681 3.38501
386 0.0100452 639.064 3.40157
387 0.0100712 640.446 3.41816
388 0.0100971 641.826 3.43479
389 0.010123 643.205 3.45145
390 0.0101489 644.583 3.46815
391 0.0101748 645.96 3.48488
392 0.0102007 647.336 3.50165
393 0.0102266 648.71 3.51846
394 0.0102525 650.083 3.5353
395 0.0102784 651.455 3.55217
396 0.0103043 652.826 3.56909
397 0.0103302 654.196 3.58603
398 0.0103561 655.564 3.60302
399 0.010382 656.931 3.62003
400 0.0104079 658.297 3.63709
401 0.0104338 659.662 3.65418
402 0.0104597 661.026 3.6713
403 0.0104856 662.388 3.68846
404 0.0105115 663.749 3.70565
405 0.0105374 665.109 3.72288
406 0.0105634 666.468 3.74015
407 0.0105893 667.826 3.75745
408 0.0106152 669.182 3.77479
409 0.0106411 670.538 3.79216
410 0.010667 671.892 3.80956
411 0.0106929 673.245 3.827
412 0.0107188 674.597 3.84448
413 0.0107447 675.947 3.86199
414 0.0107706 677.297 3.87953
415 0.0107965 678.645 3.89711
416 0.0108224 679.992 3.91473
417 0.0108483 681.338 3.93238
418 0.0108742 682.683 3.95007
419 0.0109001 684.026 3.96779
420 0.010926 685.368 3.98554
421 0.0109519 686.71 4.00333
422 0.0109778 688.05 4.02115
423 0.0110037 689.389 4.03901
424 0.0110297 690.726 4.05691
425 0.0110556 692.063 4.07484
426 0.0110815 693.398 4.0928
427 0.0111074 694.733 4.1108
428 0.0111333 696.066 4.12883
429 0.0111592 697.398 4.14689
430 0.0111851 698.728 4.16499
431 0.011211 700.058 4.18313
432 0.0112369 701.386 4.2013
433 0.0112628 702.714 4.2195
434 0.0112887 704.04 4.23774
435 0.0113146 705.365 4.25602
436 0.0113405 706.689 4.27432
437 0.0113664 708.011 4.29266
438 0.0113923 709.333 4.31104
439 0.0114182 710.653 4.32945
440 0.0114441 711.972 4.34789
441 0.01147 713.29 4.36637
442 0.011496 714.607 4.38488
443 0.0115219 715.923 4.40343
444 0.0115478 717.238 4.42201
445 0.0115737 718.551 4.44062
446 0.0115996 719.864 4.45927
447 0.0116255 721.175 4.47796
448 0.0116514 722.485 4.49667
449 0.0116773 723.794 4.51542
450 0.0117032 725.102 4.53421
451 0.0117291 726.408 4.55302
452 0.011755 727.714 4.57188
453 0.0117809 729.018 4.59076
454 0.0118068 730.322 4.60968
455 0.0118327 731.624 4.62863
456 0.0118586 732.925 4.64762
457 0.0118845 734.225 4.66664
458 0.0119104 735.523 4.68569
459 0.0119363 736.821 4.70478
460 0.0119622 738.117 4.7239
461 0.0119882 739.413 4.74306
462 0.0120141 740.707 4.76225
463 0.01204 742 4.78147
464 0.0120659 743.292 4.80072
465 0.0120918 744.583 4.82001
466 0.0121177 745.873 4.83933
467 0.0121436 747.162 4.85869
468 0.0121695 748.449 4.87808
469 0.0121954 749.736 4.8975
470 0.0122213 751.021 4.91696
471 0.0122472 752.305 4.93645
472 0.0122731 753.588 4.95597
473 0.012299 754.87 4.97552
474 0.0123249 756.151 4.99511
475 0.0123508 757.431 5.01473
476 0.0123767 758.709 5.03439
477 0.0124026 759.987 5.05408
478 0.0124285 761.263 5.0738
479 0.0124545 762.539 5.09355
480 0.0124804 763.813 5.11334
481 0.0125063 765.086 5.13316
482 0.0125322 766.358 5.15301
483 0.0125581 767.629 5.1729
484 0.012584 768.899 5.19281
485 0.0126099 770.167 5.21277
486 0.0126358 771.435 5.23275
487 0.0126617 772.701 5.25277
488 0.0126876 773.967 5.27282
489 0.0127135 775.231 5.2929
490 0.0127394 776.494 5.31302
491 0.0127653 777.757 5.33316
492 0.0127912 779.018 5.35334
493 0.0128171 780.278 5.37356
494 0.012843 781.536 5.3938
495 0.0128689 782.794 5.41408
496 0.0128948 784.051 5.43439
497 0.0129208 785.307 5.45474
498 0.0129467 786.561 5.47511
499 0.0129726 787.815 5.49552
500 0.0129985 789.067 5.51596
501 0.0130244 790.318 5.53644
502 0.0130503 791.568 5.55694
503 0.0130762 792.817 5.57748
504 0.0131021 794.066 5.59805
505 0.013128 795.312 5.61866
506 0.0131539 796.558 5.63929
507 0.0131798 797.803 5.65996
508 0.0132057 799.047 5.68066
509 0.0132316 800.29 5.70139
510 0.0132575 801.531 5.72215
511 0.0132834 802.772 5.74295
512 0.0133093 804.011 5.76378
513 0.0133352 805.249 5.78464
514 0.0133611 806.487 5.80553
515 0.013387 807.723 5.82646
516 0.013413 808.958 5.84741
517 0.0134389 810.192 5.8684
518 0.0134648 811.425 5.88942
519 0.0134907 812.657 5.91047
520 0.0135166 813.888 5.93156
521 0.0135425 815.118 5.95267
522 0.0135684 816.347 5.97382
523 0.0135943 817.575 5.995
524 0.0136202 818.801 6.01621
525 0.0136461 820.027 6.03745
526 0.013672 821.251 6.05873
527 0.0136979 822.475 6.08004
528 0.0137238 823.697 6.10137
529 0.0137497 824.919 6.12274
530 0.0137756 826.139 6.14415
531 0.0138015 827.358 6.16558
532 0.0138274 828.577 6.18704
533 0.0138533 829.794 6.20854
534 0.0138793 831.01 6.23007
535 0.0139052 832.225 6.25163
536 0.0139311 833.439 6.27322
537 0.013957 834.652 6.29484
538 0.0139829 835.864 6.31649
539 0.0140088 837.075 6.33818
540 0.0140347 838.285 6.35989
541 0.0140606 839.494 6.38164
542 0.0140865 840.702 6.40342
543 0.0141124 841.908 6.42523
544 0.0141383 843.114 6.44707
545 0.0141642 844.319 6.46894
546 0.0141901 845.523 6.49085
547 0.014216 846.725 6.51278
548 0.0142419 847.927 6.53475
549 0.0142678 849.127 6.55675
550 0.0142937 850.327 6.57877
551 0.0143196 851.525 6.60083
552 0.0143456 852.723 6.62292
553 0.0143715 853.919 6.64504
554 0.0143974 855.115 6.6672
555 0.0144233 856.309 6.68938
556 0.0144492 857.502 6.71159
557 0.0144751 858.695 6.73384
558 0.014501 859.886 6.75611
559 0.0145269 861.076 6.77842
560 0.0145528 862.266 6.80076
561 0.0145787 863.454 6.82313
562 0.0146046 864.641 6.84552
563 0.0146305 865.827 6.86795
564 0.0146564 867.012 6.89041
565 0.0146823 868.197 6.91291
566 0.0147082 869.38 6.93543
567 0.0147341 870.562 6.95798
568 0.01476 871.743 6.98056
569 0.0147859 872.923 7.00318
570 0.0148118 874.102 7.02582
571 0.0148378 875.28 7.04849
572 0.0148637 876.457 7.0712
573 0.0148896 877.633 7.09394
574 0.0149155 878.809 7.1167
575 0.0149414 879.983 7.1395
576 0.0149673 881.156 7.16232
577 0.0149932 882.328 7.18518
578 0.0150191 883.499 7.20807
579 0.015045 884.669 7.23099
580 0.0150709 885.838 7.25393
581 0.0150968 887.006 7.27691
582 0.0151227 888.173 7.29992
583 0.0151486 889.339 7.32296
584 0.0151745 890.504 7.34603
585 0.0152004 891.668 7.36913
586 0.0152263 892.831 7.39226
587 0.0152522 893.993 7.41542
588 0.0152781 895.154 7.43861
589 0.0153041 896.314 7.46183
590 0.01533 897.473 7.48507
591 0.0153559 898.631 7.50835
592 0.0153818 899.789 7.53166
593 0.0154077 900.945 7.555
594 0.0154336 902.1 7.57837
595 0.0154595 903.254 7.60177
596 0.0154854 904.407 7.6252
597 0.0155113 905.559 7.64866
598 0.0155372 906.71 7.67215
599 0.0155631 907.861 7.69567
600 0.015589 909.01 7.71922
601 0.0156149 910.158 7.74279
602 0.0156408 911.305 7.7664
603 0.0156667 912.451 7.79004
604 0.0156926 913.597 7.81371
605 0.0157185 914.741 7.8374
606 0.0157444 915.884 7.86113
607 0.0157704 917.027 7.88488
608 0.0157963 918.168 7.90867
609 0.0158222 919.309 7.93249
610 0.0158481 920.448 7.95633
611 0.015874 921.586 7.9802
612 0.0158999 922.724 8.00411
613 0.0159258 923.86 8.02804
614 0.0159517 924.996 8.052
615 0.0159776 926.131 8.076
616 0.0160035 927.264 8.10002
