# Constants and Parameters

# Final flow velocity (u_f): 2000 (m/s) - The final velocity of the flow
# Initial particle velocity (u_0): 0 (m/s) - The initial velocity of the particle
# Particle radius (r_is): 0.0001 (m) - The radius of the particle
# Nozzle radius (r_n): 0.05 (m) - The radius of the nozzle
# Particle density (q): 7874 (kg/m^3) - The density of the particle
# Gas density (q_g): 1.2754 (kg/m^3) - The density of the gas
# Gas constant (R): 8.31446 (J/(kg*K)) - The specific gas constant
# Gamma: 1.4# Molar mass of air (M): 0.029 (kg/mol) - The molar mass of air
# Gas temperature (T): 300 (K) - The temperature of the gas
# Reference temperature (T_0): 291.15 (K) - The reference temperature for gas
# Reference viscosity (eta_0): 1.827e-05 (Pa*s) - The reference viscosity of the gas
# Specific heat capacity of the gas (Cp): 460 (J/(kg*K)) - The specific heat capacity of the gas
# Speed of sound (Sound speed): 347.011 (m/s) - The speed of sound in the gas
# Dynamic viscosity (Viscosity): 1.91093e-05 (Pa*s) - The dynamic viscosity of the gas






# iter real_time (s) velocity (m/s) distance (m)
0 0 0 0
1 4.02576e-08 0.000298131 1.2002e-11
2 8.45409e-08 0.000626076 3.97267e-11
3 1.33253e-07 0.000986814 8.77961e-11
4 1.86835e-07 0.00138363 1.61935e-10
5 2.45776e-07 0.00182012 2.69215e-10
6 3.10612e-07 0.00230026 4.18353e-10
7 3.8193e-07 0.00282842 6.20072e-10
8 4.60381e-07 0.00340939 8.87541e-10
9 5.46677e-07 0.00404846 1.23691e-09
10 6.41602e-07 0.00475144 1.68794e-09
11 7.4602e-07 0.00552471 2.26482e-09
12 8.60879e-07 0.00637531 2.99708e-09
13 9.87225e-07 0.00731098 3.92079e-09
14 1.1262e-06 0.0083402 5.07991e-09
15 1.27908e-06 0.00947235 6.52802e-09
16 1.44725e-06 0.0107177 8.33038e-09
17 1.63223e-06 0.0120876 1.05664e-08
18 1.83571e-06 0.0135945 1.33326e-08
19 2.05954e-06 0.0152521 1.67464e-08
20 2.30575e-06 0.0170754 2.09506e-08
21 2.57658e-06 0.0190811 2.61184e-08
22 2.8745e-06 0.0212873 3.24602e-08
23 3.20221e-06 0.0237141 4.02315e-08
24 3.56269e-06 0.0263837 4.97422e-08
25 3.95921e-06 0.0293201 6.13684e-08
26 4.39539e-06 0.0325502 7.55662e-08
27 4.87519e-06 0.0361034 9.28884e-08
28 5.40296e-06 0.0400118 1.14006e-07
29 5.98352e-06 0.0443111 1.39731e-07
30 6.62213e-06 0.0490402 1.71048e-07
31 7.3246e-06 0.0542423 2.09152e-07
32 8.09732e-06 0.0599646 2.55488e-07
33 8.9473e-06 0.0662591 3.11807e-07
34 9.88229e-06 0.073183 3.80232e-07
35 1.09108e-05 0.0807993 4.63333e-07
36 1.20421e-05 0.0891771 5.64223e-07
37 1.32866e-05 0.0983928 6.86669e-07
38 1.46555e-05 0.10853 8.35238e-07
39 1.61613e-05 0.119681 1.01545e-06
40 1.78177e-05 0.131946 1.23401e-06
41 1.96397e-05 0.145439 1.499e-06
42 2.1644e-05 0.16028 1.82024e-06
43 2.38486e-05 0.176606 2.20959e-06
44 2.62737e-05 0.194563 2.68143e-06
45 2.89414e-05 0.214317 3.25315e-06
46 3.18757e-05 0.236045 3.9458e-06
47 3.51036e-05 0.259947 4.78487e-06
48 3.86542e-05 0.286238 5.80119e-06
49 4.25599e-05 0.315157 7.03209e-06
50 4.68561e-05 0.346968 8.52275e-06
51 5.1582e-05 0.38196 1.03278e-05
52 5.67804e-05 0.42045 1.25135e-05
53 6.24987e-05 0.462789 1.51599e-05
54 6.87889e-05 0.50936 1.83638e-05
55 7.5708e-05 0.560587 2.22426e-05
56 8.33191e-05 0.616935 2.69382e-05
57 9.16912e-05 0.678917 3.26222e-05
58 0.000100901 0.747094 3.95024e-05
59 0.000111031 0.822087 4.78304e-05
60 0.000122174 0.904575 5.79104e-05
61 0.000134432 0.995309 7.01106e-05
62 0.000147915 1.09511 8.48765e-05
63 0.000162747 1.20489 0.000102747
64 0.000179062 1.32564 0.000124375
65 0.000197009 1.45845 0.000150549
66 0.00021675 1.60454 0.000182224
67 0.000238465 1.76522 0.000220557
68 0.000262352 1.94196 0.000266944
69 0.000288627 2.13635 0.000323077
70 0.00031753 2.35016 0.000391004
71 0.000349324 2.58533 0.0004732
72 0.000384296 2.84398 0.000572661
73 0.000422766 3.12846 0.000693013
74 0.000465083 3.44134 0.00083864
75 0.000511631 3.78546 0.00101485
76 0.000562835 4.16392 0.00122805
77 0.000619159 4.58015 0.00148603
78 0.000681115 5.0379 0.00179815
79 0.000749266 5.54131 0.0021758
80 0.000824233 6.09492 0.00263272
81 0.000906697 6.70372 0.00318553
82 0.000997407 7.37318 0.00385435
83 0.00109719 8.10935 0.00466351
84 0.00120695 8.91883 0.00564243
85 0.00132768 9.80888 0.00682671
86 0.00146049 10.7875 0.00825938
87 0.00160658 11.8634 0.0099925
88 0.00175267 12.9388 0.0118827
89 0.00189876 14.0136 0.01393
90 0.00204485 15.0879 0.0161341
91 0.00219094 16.1616 0.0184952
92 0.00233703 17.2347 0.021013
93 0.00248312 18.3072 0.0236875
94 0.0026292 19.3792 0.0265186
95 0.00277529 20.4507 0.0295062
96 0.00292138 21.5216 0.0326503
97 0.00306747 22.5919 0.0359507
98 0.00321356 23.6616 0.0394074
99 0.00335965 24.7308 0.0430203
100 0.00350574 25.7995 0.0467893
101 0.00365183 26.8676 0.0507144
102 0.00379792 27.9351 0.0547954
103 0.00394401 29.002 0.0590323
104 0.0040901 30.0685 0.063425
105 0.00423619 31.1343 0.0679734
106 0.00438228 32.1996 0.0726774
107 0.00452837 33.2643 0.077537
108 0.00467445 34.3285 0.082552
109 0.00482054 35.3921 0.0877224
110 0.00496663 36.4552 0.0930481
111 0.00511272 37.5177 0.098529
112 0.00525881 38.5796 0.104165
113 0.0054049 39.641 0.109956
114 0.00555099 40.7018 0.115902
115 0.00569708 41.7621 0.122003
116 0.00584317 42.8218 0.128259
117 0.00598926 43.881 0.13467
118 0.00613535 44.9396 0.141235
119 0.00628144 45.9977 0.147955
120 0.00642753 47.0552 0.154829
121 0.00657362 48.1122 0.161858
122 0.0067197 49.1686 0.169041
123 0.00686579 50.2244 0.176378
124 0.00701188 51.2797 0.183869
125 0.00715797 52.3345 0.191515
126 0.00730406 53.3887 0.199314
127 0.00745015 54.4423 0.207268
128 0.00759624 55.4954 0.215375
129 0.00774233 56.5479 0.223636
130 0.00788842 57.5999 0.232051
131 0.00803451 58.6514 0.240619
132 0.0081806 59.7022 0.249341
133 0.00832669 60.7526 0.258216
134 0.00847278 61.8024 0.267245
135 0.00861887 62.8516 0.276427
136 0.00876495 63.9003 0.285762
137 0.00891104 64.9484 0.29525
138 0.00905713 65.996 0.304892
139 0.00920322 67.0431 0.314686
140 0.00934931 68.0896 0.324633
141 0.0094954 69.1355 0.334733
142 0.00964149 70.1809 0.344986
143 0.00978758 71.2258 0.355391
144 0.00993367 72.2701 0.365949
145 0.0100798 73.3139 0.376659
146 0.0102258 74.3571 0.387522
147 0.0103719 75.3998 0.398537
148 0.010518 76.4419 0.409704
149 0.0106641 77.4835 0.421024
150 0.0108102 78.5245 0.432496
151 0.0109563 79.565 0.444119
152 0.0111024 80.605 0.455895
153 0.0112485 81.6444 0.467822
154 0.0113946 82.6832 0.479901
155 0.0115407 83.7215 0.492132
156 0.0116867 84.7593 0.504514
157 0.0118328 85.7965 0.517048
158 0.0119789 86.8332 0.529734
159 0.012125 87.8694 0.542571
160 0.0122711 88.905 0.555559
161 0.0124172 89.9401 0.568698
162 0.0125633 90.9746 0.581988
163 0.0127094 92.0086 0.59543
164 0.0128555 93.042 0.609022
165 0.0130015 94.0749 0.622766
166 0.0131476 95.1073 0.63666
167 0.0132937 96.1391 0.650705
168 0.0134398 97.1704 0.6649
169 0.0135859 98.2011 0.679246
170 0.013732 99.2313 0.693743
171 0.0138781 100.261 0.70839
172 0.0140242 101.29 0.723187
173 0.0141703 102.319 0.738135
174 0.0143163 103.347 0.753233
175 0.0144624 104.374 0.768481
176 0.0146085 105.401 0.783879
177 0.0147546 106.428 0.799427
178 0.0149007 107.454 0.815125
179 0.0150468 108.479 0.830972
180 0.0151929 109.504 0.84697
181 0.015339 110.528 0.863117
182 0.0154851 111.552 0.879413
183 0.0156312 112.575 0.895859
184 0.0157772 113.598 0.912454
185 0.0159233 114.62 0.929199
186 0.0160694 115.642 0.946093
187 0.0162155 116.663 0.963136
188 0.0163616 117.683 0.980329
189 0.0165077 118.703 0.99767
190 0.0166538 119.723 1.01516
191 0.0167999 120.742 1.0328
192 0.016946 121.76 1.05059
193 0.017092 122.778 1.06852
194 0.0172381 123.795 1.08661
195 0.0173842 124.812 1.10484
196 0.0175303 125.828 1.12322
197 0.0176764 126.844 1.14176
198 0.0178225 127.859 1.16043
199 0.0179686 128.874 1.17926
200 0.0181147 129.888 1.19824
201 0.0182608 130.902 1.21736
202 0.0184068 131.915 1.23663
203 0.0185529 132.928 1.25605
204 0.018699 133.94 1.27562
205 0.0188451 134.951 1.29533
206 0.0189912 135.962 1.3152
207 0.0191373 136.973 1.33521
208 0.0192834 137.983 1.35536
209 0.0194295 138.992 1.37567
210 0.0195756 140.001 1.39612
211 0.0197217 141.009 1.41672
212 0.0198677 142.017 1.43747
213 0.0200138 143.024 1.45836
214 0.0201599 144.031 1.4794
215 0.020306 145.037 1.50059
216 0.0204521 146.043 1.52193
217 0.0205982 147.048 1.54341
218 0.0207443 148.053 1.56504
219 0.0208904 149.057 1.58681
220 0.0210365 150.061 1.60874
221 0.0211825 151.064 1.63081
222 0.0213286 152.066 1.65302
223 0.0214747 153.068 1.67538
224 0.0216208 154.07 1.69789
225 0.0217669 155.071 1.72054
226 0.021913 156.071 1.74334
227 0.0220591 157.071 1.76629
228 0.0222198 158.171 1.79171
229 0.0223805 159.269 1.8173
230 0.0225412 160.368 1.84307
231 0.0227019 161.465 1.86902
232 0.0228626 162.562 1.89514
233 0.0230233 163.658 1.92144
234 0.023184 164.754 1.94792
235 0.0233447 165.849 1.97457
236 0.0235054 166.943 2.0014
237 0.0236661 168.037 2.0284
238 0.0238268 169.13 2.05558
239 0.0239875 170.222 2.08294
240 0.0241482 171.314 2.11046
241 0.0243089 172.405 2.13817
242 0.0244696 173.495 2.16605
243 0.0246303 174.585 2.19411
244 0.0247909 175.675 2.22234
245 0.0249516 176.763 2.25074
246 0.0251123 177.851 2.27932
247 0.025273 178.939 2.30808
248 0.0254337 180.026 2.33701
249 0.0255944 181.112 2.36611
250 0.0257551 182.197 2.39539
251 0.0259158 183.282 2.42484
252 0.0260765 184.367 2.45447
253 0.0262372 185.45 2.48427
254 0.0263979 186.533 2.51425
255 0.0265586 187.616 2.5444
256 0.0267193 188.697 2.57472
257 0.02688 189.779 2.60522
258 0.0270407 190.859 2.63589
259 0.0272014 191.939 2.66673
260 0.0273621 193.018 2.69775
261 0.0275228 194.097 2.72894
262 0.0276835 195.175 2.76031
263 0.0278442 196.253 2.79184
264 0.0280049 197.33 2.82355
265 0.0281656 198.406 2.85544
266 0.0283263 199.481 2.88749
267 0.028487 200.556 2.91972
268 0.0286477 201.631 2.95212
269 0.0288084 202.704 2.9847
270 0.0289691 203.778 3.01745
271 0.0291298 204.85 3.05036
272 0.0292905 205.922 3.08346
273 0.0294512 206.993 3.11672
274 0.0296119 208.064 3.15016
275 0.0297726 209.134 3.18376
276 0.0299333 210.204 3.21754
277 0.030094 211.272 3.25149
278 0.0302547 212.341 3.28562
279 0.0304154 213.408 3.31991
280 0.0305761 214.475 3.35438
281 0.0307368 215.542 3.38901
282 0.0308975 216.607 3.42382
283 0.0310582 217.673 3.4588
284 0.0312189 218.737 3.49395
285 0.0313796 219.801 3.52927
286 0.0315403 220.864 3.56477
287 0.031701 221.927 3.60043
288 0.0318617 222.989 3.63626
289 0.0320224 224.051 3.67227
290 0.0321831 225.112 3.70844
291 0.0323438 226.172 3.74479
292 0.0325045 227.231 3.7813
293 0.0326652 228.291 3.81799
294 0.0328259 229.349 3.85485
295 0.0329866 230.407 3.89187
296 0.0331473 231.464 3.92907
297 0.033308 232.521 3.96643
298 0.0334687 233.577 4.00397
299 0.0336294 234.632 4.04167
300 0.03379 235.687 4.07955
301 0.0339507 236.741 4.11759
302 0.0341114 237.795 4.1558
303 0.0342721 238.848 4.19419
304 0.0344328 239.9 4.23274
305 0.0345935 240.952 4.27146
306 0.0347542 242.003 4.31035
307 0.0349149 243.054 4.34941
308 0.0350756 244.104 4.38863
309 0.0352363 245.153 4.42803
310 0.035397 246.202 4.46759
311 0.0355577 247.25 4.50733
312 0.0357184 248.298 4.54723
313 0.0358791 249.345 4.5873
314 0.0360398 250.391 4.62753
315 0.0362005 251.437 4.66794
316 0.0363612 252.482 4.70851
317 0.0365219 253.526 4.74925
318 0.0366826 254.57 4.79016
319 0.0368433 255.614 4.83124
320 0.037004 256.657 4.87248
321 0.0371647 257.699 4.9139
322 0.0373254 258.74 4.95547
323 0.0374861 259.781 4.99722
324 0.0376468 260.822 5.03913
325 0.0378075 261.861 5.08122
326 0.0379682 262.901 5.12346
327 0.0381289 263.939 5.16588
328 0.0382896 264.977 5.20846
329 0.0384503 266.015 5.25121
330 0.038611 267.052 5.29412
331 0.0387717 268.088 5.3372
332 0.0389324 269.123 5.38045
333 0.0390931 270.158 5.42386
334 0.0392538 271.193 5.46745
335 0.0394145 272.227 5.51119
336 0.0395752 273.26 5.5551
337 0.0397359 274.293 5.59918
338 0.0398966 275.325 5.64343
339 0.0400573 276.356 5.68784
340 0.040218 277.387 5.73241
341 0.0403787 278.417 5.77715
342 0.0405394 279.447 5.82206
343 0.0407001 280.476 5.86713
344 0.0408608 281.505 5.91237
345 0.0410215 282.533 5.95777
346 0.0411822 283.56 6.00334
347 0.0413429 284.587 6.04907
348 0.0415036 285.613 6.09497
349 0.0416643 286.638 6.14103
350 0.041825 287.663 6.18726
351 0.0419857 288.688 6.23365
352 0.0421464 289.712 6.28021
353 0.0423071 290.735 6.32693
354 0.0424678 291.757 6.37381
355 0.0426285 292.779 6.42086
356 0.0427891 293.801 6.46807
357 0.0429498 294.822 6.51545
358 0.0431105 295.842 6.56299
359 0.0432712 296.862 6.6107
360 0.0434319 297.881 6.65857
361 0.0435926 298.899 6.7066
362 0.0437533 299.917 6.7548
363 0.043914 300.935 6.80316
364 0.0440747 301.952 6.85168
365 0.0442354 302.968 6.90036
366 0.0443961 303.983 6.94921
367 0.0445568 304.998 6.99823
368 0.0447175 306.013 7.0474
369 0.0448782 307.027 7.09674
370 0.0450389 308.04 7.14624
371 0.0451996 309.053 7.19591
372 0.0453603 310.065 7.24573
373 0.045521 311.077 7.29572
374 0.0456817 312.088 7.34588
375 0.0458424 313.098 7.39619
376 0.0460031 314.108 7.44667
377 0.0461638 315.117 7.4973
378 0.0463245 316.126 7.54811
379 0.0464852 317.134 7.59907
380 0.0466459 318.141 7.65019
381 0.0468066 319.148 7.70148
382 0.0469673 320.155 7.75293
383 0.047128 321.16 7.80454
384 0.0472887 322.166 7.85631
385 0.0474494 323.17 7.90824
386 0.0476101 324.174 7.96034
387 0.0477708 325.178 8.01259
388 0.0479315 326.181 8.06501
389 0.0480922 327.183 8.11759
390 0.0482529 328.185 8.17032
391 0.0484136 329.186 8.22322
392 0.0485743 330.187 8.27628
393 0.048735 331.187 8.32951
394 0.0488957 332.186 8.38289
395 0.0490724 333.285 8.4418
396 0.0492492 334.383 8.50091
397 0.049426 335.48 8.56021
398 0.0496028 336.577 8.61971
399 0.0497795 337.673 8.6794
400 0.0499563 338.768 8.73928
401 0.0501331 339.863 8.79936
402 0.0503098 340.957 8.85963
403 0.0504866 342.05 8.92009
404 0.0506634 343.142 8.98075
405 0.0508401 344.234 9.0416
406 0.0510169 345.325 9.10264
407 0.0511937 346.416 9.16388
408 0.0513704 347.506 9.2253
409 0.0515472 348.595 9.28692
410 0.051724 349.683 9.34874
411 0.0519007 350.771 9.41074
412 0.0520775 351.858 9.47294
413 0.0522543 352.944 9.53533
414 0.052431 354.03 9.59791
415 0.0526078 355.115 9.66068
416 0.0527846 356.199 9.72365
417 0.0529613 357.283 9.7868
418 0.0531381 358.366 9.85015
419 0.0533149 359.448 9.91369
420 0.0534916 360.53 9.97742
421 0.0536684 361.611 10.0413
422 0.0538452 362.691 10.1055
423 0.054022 363.77 10.1698
424 0.0541987 364.849 10.2343
425 0.0543755 365.927 10.2989
426 0.0545523 367.005 10.3638
427 0.054729 368.082 10.4289
428 0.0549058 369.158 10.4941
429 0.0550826 370.233 10.5596
430 0.0552593 371.308 10.6252
431 0.0554361 372.382 10.691
432 0.0556129 373.456 10.7571
433 0.0557896 374.528 10.8233
434 0.0559664 375.6 10.8896
435 0.0561432 376.672 10.9562
436 0.0563199 377.743 11.023
437 0.0564967 378.813 11.09
438 0.0566735 379.882 11.1571
439 0.0568502 380.951 11.2245
440 0.057027 382.019 11.292
441 0.0572038 383.086 11.3597
442 0.0573805 384.153 11.4276
443 0.0575573 385.219 11.4957
444 0.0577341 386.284 11.564
445 0.0579109 387.349 11.6325
446 0.0580876 388.413 11.7011
447 0.0582644 389.476 11.77
448 0.0584412 390.539 11.839
449 0.0586179 391.601 11.9082
450 0.0587947 392.662 11.9776
451 0.0589715 393.723 12.0472
452 0.0591482 394.783 12.117
453 0.059325 395.842 12.187
454 0.0595018 396.901 12.2571
455 0.0596785 397.959 12.3275
456 0.0598553 399.016 12.398
457 0.0600321 400.073 12.4687
458 0.0602088 401.129 12.5397
459 0.0603856 402.185 12.6107
460 0.0605624 403.239 12.682
461 0.0607391 404.293 12.7535
462 0.0609159 405.347 12.8251
463 0.0610927 406.399 12.897
464 0.0612694 407.451 12.969
465 0.0614462 408.503 13.0412
466 0.061623 409.553 13.1136
467 0.0617997 410.603 13.1862
468 0.0619765 411.653 13.259
469 0.0621533 412.702 13.3319
470 0.0623301 413.75 13.4051
471 0.0625068 414.797 13.4784
472 0.0626836 415.844 13.5519
473 0.0628604 416.89 13.6256
474 0.0630371 417.935 13.6995
475 0.0632139 418.98 13.7735
476 0.0633907 420.024 13.8478
477 0.0635674 421.068 13.9222
478 0.0637442 422.111 13.9968
479 0.063921 423.153 14.0716
480 0.0640977 424.194 14.1466
481 0.0642745 425.235 14.2218
482 0.0644513 426.275 14.2971
483 0.064628 427.315 14.3726
484 0.0648048 428.354 14.4484
485 0.0649816 429.392 14.5243
486 0.0651583 430.43 14.6004
487 0.0653351 431.467 14.6766
488 0.0655119 432.503 14.7531
489 0.0656886 433.538 14.8297
490 0.0658654 434.573 14.9065
491 0.0660422 435.608 14.9835
492 0.0662189 436.641 15.0607
493 0.0663957 437.674 15.1381
494 0.0665725 438.707 15.2156
495 0.0667493 439.739 15.2934
496 0.066926 440.77 15.3713
497 0.0671028 441.8 15.4494
498 0.0672796 442.83 15.5277
499 0.0674563 443.859 15.6061
500 0.0676331 444.888 15.6848
501 0.0678099 445.915 15.7636
502 0.0679866 446.943 15.8426
503 0.0681634 447.969 15.9218
504 0.0683402 448.995 16.0011
505 0.0685169 450.02 16.0807
506 0.0686937 451.045 16.1604
507 0.0688705 452.069 16.2403
508 0.0690472 453.092 16.3204
509 0.069224 454.115 16.4007
510 0.0694008 455.137 16.4812
511 0.0695775 456.158 16.5618
512 0.0697543 457.179 16.6426
513 0.0699311 458.199 16.7236
514 0.0701078 459.219 16.8048
515 0.0702846 460.238 16.8861
516 0.0704614 461.256 16.9677
517 0.0706381 462.273 17.0494
518 0.0708149 463.29 17.1313
519 0.0709917 464.307 17.2133
520 0.0711685 465.322 17.2956
521 0.0713452 466.337 17.378
522 0.071522 467.352 17.4606
523 0.0716988 468.365 17.5434
524 0.0718755 469.379 17.6264
525 0.0720523 470.391 17.7096
526 0.0722291 471.403 17.7929
527 0.0724058 472.414 17.8764
528 0.0725826 473.425 17.9601
529 0.0727594 474.435 18.0439
530 0.0729361 475.444 18.128
531 0.0731129 476.453 18.2122
532 0.0732897 477.461 18.2966
533 0.0734664 478.468 18.3812
534 0.0736432 479.475 18.4659
535 0.07382 480.481 18.5509
536 0.0739967 481.486 18.636
537 0.0741735 482.491 18.7213
538 0.0743503 483.495 18.8067
539 0.074527 484.499 18.8924
540 0.0747038 485.502 18.9782
541 0.0748806 486.504 19.0642
542 0.0750573 487.506 19.1504
543 0.0752341 488.507 19.2367
544 0.0754109 489.508 19.3233
545 0.0755877 490.508 19.41
546 0.0757821 491.607 19.5056
547 0.0759765 492.705 19.6014
548 0.076171 493.803 19.6974
549 0.0763654 494.899 19.7936
550 0.0765599 495.995 19.8901
551 0.0767543 497.091 19.9867
552 0.0769488 498.185 20.0836
553 0.0771432 499.279 20.1807
554 0.0773377 500.372 20.278
555 0.0775321 501.464 20.3755
556 0.0777265 502.556 20.4732
557 0.077921 503.647 20.5711
558 0.0781154 504.737 20.6693
559 0.0783099 505.826 20.7676
560 0.0785043 506.915 20.8662
561 0.0786988 508.002 20.965
562 0.0788932 509.089 21.064
563 0.0790877 510.176 21.1632
564 0.0792821 511.261 21.2626
565 0.0794766 512.346 21.3622
566 0.079671 513.43 21.462
567 0.0798654 514.513 21.5621
568 0.0800599 515.596 21.6623
569 0.0802543 516.678 21.7628
570 0.0804488 517.759 21.8635
571 0.0806432 518.839 21.9644
572 0.0808377 519.919 22.0654
573 0.0810321 520.997 22.1668
574 0.0812266 522.075 22.2683
575 0.081421 523.153 22.37
576 0.0816154 524.229 22.4719
577 0.0818099 525.305 22.5741
578 0.0820043 526.38 22.6764
579 0.0821988 527.455 22.779
580 0.0823932 528.528 22.8817
581 0.0825877 529.601 22.9847
582 0.0827821 530.673 23.0879
583 0.0829766 531.745 23.1913
584 0.083171 532.815 23.2949
585 0.0833654 533.885 23.3987
586 0.0835599 534.954 23.5027
587 0.0837543 536.023 23.607
588 0.0839488 537.091 23.7114
589 0.0841432 538.158 23.816
590 0.0843377 539.224 23.9209
591 0.0845321 540.289 24.026
592 0.0847266 541.354 24.1312
593 0.084921 542.418 24.2367
594 0.0851155 543.481 24.3424
595 0.0853099 544.544 24.4482
596 0.0855043 545.606 24.5543
597 0.0856988 546.667 24.6606
598 0.0858932 547.727 24.7671
599 0.0860877 548.787 24.8738
600 0.0862821 549.846 24.9808
601 0.0864766 550.904 25.0879
602 0.086671 551.962 25.1952
603 0.0868655 553.018 25.3027
604 0.0870599 554.074 25.4105
605 0.0872543 555.13 25.5184
606 0.0874488 556.184 25.6266
607 0.0876432 557.238 25.7349
608 0.0878377 558.291 25.8435
609 0.0880321 559.343 25.9522
610 0.0882266 560.395 26.0612
611 0.088421 561.446 26.1704
612 0.0886155 562.496 26.2797
